4529.05
4540.33
4540.65
4546.99
4551.40
4559.12
4560.67
4560.72
4599.47
4633.87
4648.40
4644.83
4616.18
4595.99
4593.97
4602.44
4611.43
4616.05
4629.64
4610.80
4631.40
4634.38
4659.24
4715.22
4740.98
4741.02
4746.01
4742.19
4756.80
4753.94
4760.97
4781.14
4782.47
4754.60
#N/A
4755.69
4773.67
4795.38
4804.47
4764.78
4803.91
4789.30
4785.48
4787.87
4784.43
4749.53
4758.42
4760.53
4814.99
4819.70
4845.01
4839.57
4866.94
4864.06
4868.95
4860.90
4860.58
4865.05
4911.27
4933.15
4940.44
4934.29
4933.12
4920.42
4927.20
4948.85
4954.22
4955.76
4957.79
4966.68
4962.18
4976.58
4997.18
#N/A
4973.56
4958.88
4942.34
4950.59
4980.51
5013.97
5008.39
5015.27
5025.70
5035.89
5030.90
5034.35
5080.09
5077.84
5073.91
5105.26
5106.06
5117.83
5123.66
5140.06
5161.40
5171.54
5162.16
5096.42
5090.83
5128.83
5172.35
5174.43
5170.69
5129.36
#N/A
5120.20
5192.80
5202.40
5202.90
5235.17
5234.85
5217.81
5215.01
5176.86
5204.07
5249.88
5256.04
5268.69
5292.77
5338.58
5341.17
5338.33
5400.86
5389.65
5336.04
5318.65
5333.06
5333.11
5348.77
5367.03
#N/A
5376.49
5435.98
5471.73
5480.35
5461.10
5521.58
5525.56
5518.19
5542.52
5500.36
5410.58
5438.81
5448.78
5483.40
5529.53
5539.57
5579.87
5564.26
5561.86
5536.37
5526.46
5520.73
5526.71
5540.56
5543.32
5543.45
5527.83
5510.74
5548.81
5543.94
5568.55
5570.48
5575.97
5566.13
5574.66
5561.42
5559.13
5580.27
5567.21
5565.23
5584.83
5602.28
5622.31
#N/A
5674.12
5694.38
5699.98
5726.79
5744.48
5764.93
5778.44
5817.43
5805.20
5799.97
5819.13
5843.27
5815.15
5793.04
5783.31
5774.95
5757.45
5807.69
5806.63
5772.05
5763.86
5739.25
5753.61
5757.26
5696.61
5679.73
5716.91
5759.43
5785.10
5773.14
5806.97
5820.29
5839.66
5808.47
5780.93
5793.48
5748.30
5688.71
5715.52
5752.04
5740.87
5762.25
5823.13
5841.89
5830.16
5800.11
5843.20
5866.10
5863.68
5854.56
5818.36
5847.40
5881.14
5907.74
5873.11
5887.19
5874.36
#N/A
5892.61
5904.26
5951.47
5973.93
5969.99
5980.60
6043.57
6073.10
6083.10
6044.73
6057.15
6073.58
6058.41
6084.51
6034.56
6021.21
5915.97
5971.00
5943.05
5988.45
6002.99
#N/A
6027.34
6030.76
6029.25
6057.21
#N/A
6096.11
6095.89
6044.01
6036.41
6049.15
5956.99
5850.20
5903.82
5897.51
5869.43
5925.80
5921.82
5944.01
5982.38
6003.80
6002.32
6068.19
6043.66
6085.13
6105.96
6161.64
6211.82
6240.26
6225.33
6266.31
6310.44
6333.09
6384.75
6390.63
6425.88
6412.28
6385.30
6363.88
6343.28
#N/A
6275.69
6342.48
6449.34
6443.26
6381.89
6354.26
6342.10
6307.25
6328.31
6376.76
6420.90
6401.56
6412.44
6226.23
6290.23
6258.18
6278.59
6306.66
6315.53
6414.34
6406.73
6389.24
6383.31
6395.09
6381.22
6398.30
6374.15
6379.28
6365.89
6433.02
6449.07
6455.49
6461.61
#N/A
6352.96
6347.67
6277.75
6240.14
6287.21
6341.23
6373.02
6345.69
6372.74
6392.60
6425.80
6467.74
6466.51
6494.66
6507.73
6514.36
6514.79
6529.40
6429.25
6421.25
6412.62
6386.52
6425.56
6437.97
6506.58
6594.28
6640.69
6641.44
6641.77
6681.26
6719.13
6712.84
6757.13
6737.82
6758.69
#N/A
6696.72
6655.86
6688.39
6677.35
6663.77
6703.26
6750.87
6704.56
6694.13
6686.03
6677.07
6671.31
6653.78
6628.95
6616.42
6568.85
6555.61
6538.64
6575.20
6597.02
6587.11
6530.06
6566.27
6612.77
6666.81
6649.90
6629.11
#N/A
6498.19
6439.38
6460.42
6448.77
6334.72
6329.17
6160.63
6126.47
6216.95
6315.66
6270.09
6209.40
6131.22
6099.34
6164.01
6220.28
6174.67
6203.72
6247.03
6341.68
6462.23
6442.65
6465.47
6490.23
6480.11
6473.95
6489.45
6448.77
6469.93
6482.40
6503.14
6512.52
6504.57
6496.60
6551.82
6529.18
6505.48
6535.57
6534.14
6474.27
6434.03
#N/A
6444.68
6454.80
6394.66
6449.75
6515.51
6522.11
6548.13
6586.36
6671.11
6702.63
6701.87
6687.16
6701.74
6736.20
6723.86
6723.49
6734.86
6749.13
6754.33
6765.65
6773.18
6820.50
6811.49
6885.59
6897.39
6868.92
6832.64
6816.56
6866.28
6896.57
6891.42
6896.03
6915.53
6943.80
6927.42
6880.26
6880.60
6844.03
6834.31
6792.59
6813.12
6808.52
6851.33
6841.79
6861.14
6920.28
7013.90
7045.82
7069.89
7082.63
7067.63
7083.10
7121.19
7128.18
7118.49
7153.89
7174.85
7156.65
7210.60
7279.40
7273.06
7269.52
#N/A
7292.16
7295.57
7250.46
7219.72
7219.20
7168.44
7263.79
7250.32
7177.89
7091.58
7072.70
6998.62
7028.13
7083.25
7202.49
7222.65
7201.56
7231.99
#N/A
7270.92
7288.86
7274.20
7198.29
#N/A
7147.80
7243.28
7253.44
7299.15
7269.64
7325.94
7362.73
7360.05
7438.12
7426.47
7447.65
7501.83
7514.91
7567.63
7594.85
7535.50
7467.21
7413.32
7414.93
7464.07
7556.79
7575.79
7586.76
7592.64
7498.36
7511.88
7582.92
7542.75
7561.24
7678.65
7757.39
7737.86
#N/A
7792.57
7773.11
7687.25
7668.96
7727.40
7747.56
7692.26
7602.59
7559.42
7591.52
7573.41
7658.89
7639.68
7687.12
7757.04
7741.15
7675.29
7553.13
7580.93
7576.67
7517.90
7468.57
7453.85
7468.07
7501.44
7497.33
7517.39
7376.84
#N/A
7213.53
7222.42
7140.67
7137.61
7213.96
7272.99
7305.75
7268.61
7238.13
7059.97
7097.53
7185.50
7242.99
7233.56
7269.47
7198.92
7300.29
7296.89
7284.90
7216.51
7274.23
7449.46
7519.29
7512.41
7655.70
7817.30
7800.26
7706.98
7745.41
7781.11
7885.88
7849.22
7874.56
7924.24
7832.41
7861.07
7927.23
7926.27
7898.29
8000.32
#N/A
8026.60
8013.05
8000.97
8038.50
8044.46
8033.58
7993.99
8026.56
8140.16
8180.24
8194.77
8227.15
8334.22
8409.93
8419.85
8434.43
8399.17
8484.16
8484.51
8329.99
8460.86
8407.21
8364.37
8399.76
8396.87
8441.43
8541.51
8639.34
#N/A
8610.86
8670.44
8591.40
8642.28
8682.70
8701.10
8763.66
8870.57
8822.87
8697.78
8667.27
8834.07
8863.62
8894.45
8885.71
8867.93
8913.60
9007.36
9031.43
8977.58
9005.06
9040.55
9110.42
9037.10
8881.84
8890.10
8815.90
8784.77
8807.29
8631.37
8708.58
8826.76
8946.54
8835.17
8815.84
8802.69
8754.44
8769.18
8701.79
8679.98
#N/A
8901.72
8915.05
8940.93
8943.92
8968.81
8996.08
8891.01
8839.31
8940.11
8918.32
9116.86
9107.84
9148.29
9172.69
9222.33
9195.63
9148.23
9097.46
9147.19
9215.39
9180.21
9242.81
9286.82
9340.08
9405.84
9486.69
9422.42
9410.17
9384.40
9396.86
9403.22
9365.47
9277.90
9154.76
9259.56
9404.62
9386.91
9208.60
9137.09
8537.05
8899.85
8900.80
8763.71
8865.25
9073.72
9096.59
9125.63
9081.73
8962.17
8917.32
8925.59
8749.82
8823.61
8932.58
9095.19
9027.09
9067.28
9191.74
9220.06
9066.93
9094.20
9108.12
#N/A
9142.43
9307.19
9283.76
9329.74
9317.77
9407.88
9411.33
9341.99
9272.23
9125.19
9097.85
9162.76
9219.51
9211.27
9107.99
9043.11
9098.85
8993.70
8946.64
#N/A
8976.00
9119.24
9278.38
9298.19
#N/A
9327.70
9345.25
9248.53
9213.10
9141.11
8875.47
8938.57
9066.06
9131.34
9079.75
9182.38
#N/A
9331.61
9266.15
9196.76
9146.39
9123.34
9215.96
9305.62
9372.49
9340.80
9524.34
9565.62
9592.82
9581.86
9646.73
9641.79
9721.35
9731.98
9765.80
9747.14
#N/A
9764.23
9842.06
9819.73
9858.56
9895.56
9834.35
9941.85
9999.61
10006.44
10000.64
10025.15
9995.45
9875.03
10065.95
10032.41
10140.43
10182.11
10202.60
10197.16
10283.95
10292.77
10342.89
10385.08
10455.88
10424.39
10507.21
10487.78
10482.20
10443.07
10423.24
10494.72
10562.79
10652.80
10671.59
10653.88
10536.73
10486.72
10571.23
#N/A
10567.53
10641.23
10683.76
10590.48
10707.64
10728.17
10756.64
10782.75
10673.88
10564.96
10345.55
10364.45
10455.70
10609.61
10682.49
10692.74
10634.27
10548.39
10459.44
10572.92
10548.61
10602.71
10622.47
10617.25
10536.98
10485.71
10533.97
10588.05
10544.66
10497.71
#N/A
10341.47
10304.06
10362.05
10314.18
10279.90
10300.77
10225.57
10325.22
10472.95
10501.06
10527.40
10454.89
10300.65
10316.19
10105.44
10214.09
10386.99
10363.46
10325.85
10365.39
10502.79
10620.96
10591.96
10617.67
10681.55
10663.61
10786.81
10764.72
#N/A
10855.85
10839.08
10936.85
10879.93
10916.22
10929.28
11024.40
11014.60
11086.69
11106.10
11091.27
10929.79
10883.24
10672.30
10659.86
10670.28
10515.09
10469.44
10622.17
10420.26
10334.18
9971.55
10008.21
10112.69
10165.91
10102.60
9942.61
10088.31
10003.82
9913.77
10064.79
10220.49
10182.52
10113.02
9996.82
10035.48
10064.42
9948.06
9557.07
9418.02
8785.71
9090.01
9090.03
8993.53
8931.15
#N/A
9354.26
9198.69
8963.74
9206.78
9378.57
9453.67
9529.36
9323.13
9361.48
9381.66
9452.79
9767.23
9566.24
9575.98
9603.94
9600.39
9346.81
9053.16
9167.94
9001.34
8951.50
8792.20
8620.80
8850.91
9013.34
8960.40
9060.47
9434.87
9536.53
9622.85
9663.73
9720.19
9802.40
9750.47
9784.16
9747.27
9751.02
9906.87
10032.19
10185.27
10173.34
10255.12
10377.74
10455.22
10375.98
10352.17
10291.45
10262.81
10307.34
10383.89
10415.39
10478.85
10547.19
10632.35
10831.27
10783.53
10836.96
#N/A
10900.39
10650.20
10731.48
10702.35
10543.34
10743.65
10849.09
10808.66
10817.54
10647.06
10643.58
10423.37
10591.28
10592.83
10731.68
10818.56
10956.28
10963.13
11172.69
11168.97
#N/A
11191.09
11315.05
11261.99
11317.59
#N/A
11307.20
11430.87
11661.19
11639.36
11702.09
11643.54
11440.47
11374.88
11187.84
11450.66
#N/A
11527.47
11564.26
11368.84
11290.33
11355.47
11514.68
11445.57
11620.80
11724.83
11689.86
11588.71
11689.01
11495.97
11381.13
11397.09
11151.38
11178.72
11447.44
11242.81
#N/A
11308.52
11146.59
11255.36
11280.82
11551.62
11557.41
11428.00
11348.83
11286.08
11277.58
11212.49
11217.95
11368.78
11601.44
11677.25
11654.69
11717.07
11798.01
11760.39
11865.41
11858.14
11792.65
11932.09
11795.14
11761.64
11449.19
11506.31
11702.00
11658.83
11893.39
11803.03
11707.67
11768.85
#N/A
11989.85
11963.73
12005.29
12161.71
12218.92
12323.87
12286.86
12110.77
12082.90
12065.52
11773.41
11914.22
12207.95
12407.89
12394.46
12455.30
12464.11
12360.23
12300.83
12259.36
12386.63
12207.81
12321.08
12199.83
12295.06
12290.69
12434.97
12510.39
12549.05
12295.34
12293.78
12256.11
12353.58
12317.68
12253.43
12016.45
11812.57
11969.09
11799.70
11976.75
#N/A
11902.55
11894.64
11927.33
12152.34
12239.53
12100.70
12120.98
11982.01
11885.27
11829.38
11882.77
12144.88
12240.71
12268.57
12344.54
12238.98
12217.38
12072.98
12060.84
12192.43
12377.95
12583.60
12643.51
12735.90
#N/A
12725.15
12758.17
12749.98
12838.46
12802.07
12758.95
12813.19
12920.96
12976.99
12877.18
12606.48
12631.35
12470.36
12436.63
12314.31
12450.19
12477.57
12265.15
12189.84
12143.26
12061.36
11882.61
11950.91
11842.77
11800.42
11663.98
11840.45
11832.78
12075.22
12109.08
12227.77
12145.05
12060.50
12170.16
12367.22
12393.62
12540.82
12394.93
12277.08
12069.59
12042.23
12129.03
12019.23
12350.56
#N/A
12322.69
12265.11
12303.57
12347.26
12278.76
12211.95
12055.85
12032.54
12182.60
12176.70
11942.80
11993.55
11704.10
11675.90
11722.00
11697.48
11607.90
11713.80
11703.30
11892.90
11879.10
12092.50
12035.80
12170.40
12197.10
12017.59
11754.70
11751.20
11446.60
11456.00
11534.40
11765.80
11719.60
11875.20
11825.20
11736.80
11852.43
12229.20
12449.40
12403.20
12369.40
12451.70
12534.80
12619.10
12688.90
12583.70
12653.60
12697.87
12842.39
12844.55
13077.98
13002.76
13148.30
13126.15
13127.90
12961.55
13078.83
#N/A
13101.67
13018.26
12851.93
12923.45
13067.22
13281.06
13219.87
13162.19
13142.87
13183.78
13254.89
13247.09
13088.72
13153.23
13224.40
13251.04
13248.61
13413.20
13473.33
13652.84
#N/A
13626.58
13652.17
13734.15
13737.66
13812.67
13710.46
13168.48
13178.53
13134.23
13497.01
13722.70
13511.93
13426.58
13633.22
13795.30
#N/A
13759.37
13807.57
13773.95
13793.39
13433.41
13507.25
13451.84
13395.69
13017.60
13230.62
13392.78
13416.32
13605.99
13603.84
13642.94
13813.67
13554.59
13631.82
13385.61
13418.34
13502.73
13422.20
13482.79
13124.38
#N/A
13150.03
13294.57
13284.96
13142.74
13258.81
13511.00
13693.30
13692.24
13999.54
13877.53
13583.94
13667.92
14006.37
13952.02
13762.69
13460.99
13608.75
14202.07
14273.54
14053.24
14346.22
14521.21
14734.25
14751.64
14703.89
14508.52
14384.65
14133.93
14296.18
14121.64
13955.77
13948.54
14146.66
14341.12
14083.14
13972.61
13586.29
13335.44
12474.65
12849.46
13328.96
13221.42
13249.44
#N/A
13126.54
13608.03
13449.27
13545.33
13541.70
13726.82
13457.90
13179.24
13181.76
13385.83
13264.23
13119.28
12789.00
13041.39
13151.12
13437.65
13601.38
13417.61
13280.60
12980.74
12893.34
12610.68
12804.24
12646.64
12617.04
#N/A
13080.62
13052.96
13368.11
13734.37
13678.80
13645.54
13725.34
13645.54
13644.90
13491.25
13687.85
13670.22
13737.48
13634.58
13856.79
13818.11
13862.21
13605.05
13477.69
13603.16
13536.80
13629.86
13535.45
13618.50
13750.29
#N/A
13530.23
13647.22
13849.18
13826.39
13850.10
14018.57
14085.84
14218.45
14236.67
14049.25
13895.71
14076.45
13892.61
13701.48
13774.21
13600.82
13495.35
13196.57
13330.31
13363.03
13366.78
13503.15
13619.73
13775.71
13793.74
13710.32
13584.37
13703.86
13875.09
13809.66
13784.68
13940.99
13907.18
13969.57
13969.52
14049.03
14096.83
14091.29
14158.36
14147.13
14125.58
14280.04
14329.94
#N/A
14201.73
14044.53
14155.20
14050.20
13995.84
13937.71
13970.18
13974.27
13813.58
13578.05
13746.02
13693.42
13637.81
13678.15
13604.60
13484.57
13465.27
13786.28
13613.33
13522.25
13364.06
13451.99
13422.02
13142.16
13099.79
12914.18
12699.66
12354.82
12803.25
12831.42
12588.60
12494.14
12942.80
13057.40
13058.91
13046.78
12733.72
12738.84
12860.65
12965.70
13314.68
13252.60
13388.31
13382.96
13404.68
13402.75
13152.56
13029.26
12688.89
12522.54
12846.72
12926.01
12720.57
12659.90
12361.32
12361.42
12110.06
#N/A
12353.39
12393.69
12197.42
12220.59
11976.24
12037.44
12084.23
12616.93
12398.24
12329.40
12666.46
12811.63
12685.59
12545.64
12328.82
12093.96
12177.99
11988.13
11570.29
11635.55
11981.58
#N/A
12053.79
12215.56
12325.67
12175.88
#N/A
11763.92
12380.26
12224.42
11872.66
11836.45
11896.98
12064.50
12227.44
12181.33
#N/A
12268.09
12310.07
12448.12
12383.96
12389.91
12584.00
12631.23
12538.71
12527.35
12640.65
12719.22
12631.36
12691.15
12435.44
12472.17
12479.85
12377.86
12293.96
12124.31
12253.57
12147.90
12144.30
12253.82
12029.62
#N/A
11807.43
11596.76
11544.33
11500.71
11722.40
11592.11
11425.29
11429.45
11374.41
11434.54
11553.94
11623.61
11613.91
11331.73
10849.59
11014.53
10744.53
10782.68
10559.37
10754.33
10504.39
10308.33
10261.91
10475.38
10592.75
10842.88
10570.14
10518.08
10645.85
10482.06
10103.29
10068.63
10532.13
10318.49
10410.75
10701.66
10688.32
10852.65
#N/A
10805.21
10923.76
11343.78
11505.44
11409.75
11224.92
11099.40
11284.05
11340.76
11508.88
11512.46
11667.49
11700.18
11520.76
11687.27
11649.01
11637.70
11582.70
11575.48
11491.34
11506.65
11518.32
11832.70
11895.72
11923.50
12142.14
12125.59
11922.65
11970.38
11849.90
#N/A
11729.34
11527.05
11610.22
11671.48
11731.51
11902.89
11787.79
11851.23
11736.72
11625.50
11631.79
11509.47
11287.97
11238.01
11171.31
11194.83
11312.77
11423.91
11312.46
11253.18
11254.28
11229.02
11374.63
11407.15
11477.37
11454.17
#N/A
11316.54
11059.59
11124.33
10962.56
10944.55
11208.21
11271.92
11144.47
11260.71
11184.52
11245.52
11212.37
11042.81
10859.27
11009.32
11137.46
11165.20
11153.39
11208.51
11259.73
11296.64
11242.94
11115.21
11139.11
10949.01
10943.59
10994.45
11017.55
10987.36
10910.50
10934.61
10760.09
10837.59
10711.05
10784.90
10752.08
10948.41
10904.28
10749.09
10644.17
10471.99
10515.09
#N/A
10506.00
10472.58
10252.14
10066.49
10104.45
#N/A
#N/A
#N/A
#N/A
9590.69
9516.31
9357.76
9073.24
8900.45
9238.54
9307.82
9246.54
9350.02
9562.95
9518.42
9518.44
9842.45
9834.23
9837.11
9759.33
9710.47
9937.70
10109.04
10049.12
10040.30
10117.88
9916.34
9841.65
9894.89
10042.19
9995.23
10001.08
10143.12
10185.53
9950.25
9778.47
9796.86
10000.60
10016.81
10157.12
10304.39
10279.22
10290.33
10297.23
10289.91
10478.70
10510.88
10511.51
10486.67
10606.84
10523.12
10474.54
#N/A
10596.40
10670.75
10613.97
10427.06
10544.79
10531.45
10443.79
10594.77
10834.46
10822.07
10745.37
10583.43
10564.56
10566.06
10408.93
10443.56
10549.82
10636.82
10682.15
10582.95
10644.81
10648.86
#N/A
10703.40
10774.64
10818.57
10707.68
#N/A
10750.87
10856.68
10932.32
10858.14
10831.30
10782.44
10790.86
10698.22
10611.60
10683.37
10514.12
10621.66
10509.36
#N/A
10425.14
10522.08
10566.01
10576.52
10582.02
10317.70
10425.43
10564.69
10490.17
10245.23
10210.26
10132.38
10090.36
10249.32
10385.99
10354.75
10454.44
10429.31
10315.47
#N/A
10119.10
10252.25
10099.26
10179.29
10346.69
10358.69
10363.06
10332.89
10560.01
10767.92
10712.29
10859.26
10814.77
10890.67
10922.16
10892.98
10793.11
10789.58
10904.69
10916.03
10953.64
10790.94
10823.52
10776.86
10623.31
10686.02
10746.58
10775.74
#N/A
10765.18
10669.29
10564.02
10576.88
10551.43
10588.65
10529.10
10650.92
10419.74
10505.97
10437.84
10669.41
10642.51
10628.54
10635.05
10478.66
10425.01
10359.97
10351.54
10208.26
10119.99
10241.18
10318.45
10298.28
10202.04
10016.35
9979.98
10328.87
10180.84
10017.47
10190.48
10410.30
10367.65
10403.18
10474.18
10341.59
10223.48
10261.27
10369.38
10250.64
#N/A
10177.06
10110.64
10086.98
10106.49
9865.09
9854.56
9930.79
9744.40
9752.69
9771.69
9609.42
9660.32
9557.16
9549.72
9810.97
9814.86
9658.20
9531.45
9389.98
9406.86
9251.65
9222.31
9373.21
9384.03
9168.49
8961.57
8998.20
#N/A
9313.40
9198.56
8986.74
8716.38
8760.01
8711.60
8671.29
8545.04
8595.48
8365.26
8082.99
7825.50
7601.84
8009.06
7971.59
8091.63
8526.13
8563.08
8616.94
8386.19
8186.56
7916.32
8153.38
8297.96
8547.30
8571.87
8537.21
8355.51
8662.96
8764.54
8770.28
8956.53
8840.21
8958.39
9075.57
8876.89
8951.63
8816.26
8660.45
8676.63
8654.04
#N/A
8317.32
8464.89
8330.70
8481.20
8557.21
8614.45
8610.82
8407.89
8440.93
8442.02
8283.00
8244.91
8005.07
8023.17
7908.23
7786.14
7971.70
8110.37
7872.54
7773.63
8044.62
7859.67
7773.47
7598.62
7444.62
7552.69
7342.84
7591.18
7873.03
7930.44
8290.48
8091.03
8282.51
8323.78
8459.30
8365.08
8430.53
8312.17
8450.64
8381.02
8307.68
8391.58
8357.32
8502.20
8570.04
8624.12
8708.87
8516.21
8438.80
8264.65
8333.44
8330.78
8532.12
8584.05
8499.01
8458.21
8619.42
8802.07
8783.13
8813.76
8635.64
8872.79
#N/A
8846.71
8841.23
8706.12
8671.29
8578.02
8629.16
8438.21
8557.00
8562.71
8541.75
8426.09
8611.40
8544.51
8431.30
8372.32
8475.26
8495.01
8451.97
#N/A
8435.74
8305.45
8333.51
8343.19
#N/A
8601.24
8593.22
8772.22
8713.70
8596.03
8755.98
8758.43
8745.65
8793.17
8679.99
8650.97
8530.32
#N/A
8400.48
8321.92
8405.68
8175.75
8041.99
8142.57
8194.17
8021.21
8125.07
8154.81
8049.55
8010.06
7958.19
7873.42
7929.13
7873.27
7772.39
7752.06
7896.94
#N/A
8051.71
7995.72
7931.61
8035.97
7895.06
7949.39
7852.44
7939.73
7972.60
7920.37
7807.01
7865.25
7799.65
7857.32
7672.24
7610.47
